# Sweep from 15840.051Hz to 15803.076Hz step -0.30812500000000304Hz delay 0.8s
# Excitation 0.005168Vpp attenuator 0 dB
# time(s), freq(Hz), absorption(nA), dispersion(nA)
83364.35 15840.051 5.8415071 -0.31236615
83365.17 15839.743 5.8493779 -0.30470969
83365.98 15839.435 5.8456135 -0.30281487
83366.80 15839.127 5.8423179 -0.30544535
83367.62 15838.818 5.8479477 -0.30054599
83368.44 15838.510 5.8510277 -0.29223185
83369.25 15838.202 5.8489986 -0.29484681
83370.07 15837.894 5.8555529 -0.28641276
83370.88 15837.586 5.8527057 -0.28848424
83371.70 15837.278 5.8595951 -0.28769625
83372.52 15836.970 5.8596888 -0.2833477
83373.34 15836.662 5.8557871 -0.27515642
83374.15 15836.353 5.8615892 -0.27366821
83374.97 15836.045 5.8664618 -0.27225246
83375.78 15835.737 5.8672431 -0.26520803
83376.60 15835.429 5.8699916 -0.26460276
83377.42 15835.121 5.8723508 -0.26672967
83378.24 15834.813 5.8749779 -0.25663073
83379.05 15834.505 5.8802952 -0.25597771
83379.87 15834.197 5.8794972 -0.25263489
83380.68 15833.888 5.8802261 -0.24966698
83381.50 15833.580 5.8896076 -0.24188597
83382.31 15833.272 5.8926234 -0.23814995
83383.13 15832.964 5.8916521 -0.23743333
83383.94 15832.656 5.8949831 -0.23418166
83384.76 15832.348 5.9035046 -0.22638076
83385.57 15832.040 5.9131098 -0.21509084
83386.39 15831.732 5.9076087 -0.2133914
83387.20 15831.423 5.9187596 -0.21259149
83388.02 15831.115 5.9324107 -0.20465399
83388.84 15830.807 5.9298286 -0.20418979
83389.65 15830.499 5.933271 -0.20431692
83390.47 15830.191 5.9450317 -0.19249194
83391.29 15829.883 5.9543231 -0.18665787
83392.10 15829.575 5.9588597 -0.18022978
83392.91 15829.267 5.9700146 -0.17832646
83393.73 15828.958 5.9766085 -0.17203554
83394.54 15828.650 5.9826079 -0.16915318
83395.36 15828.342 5.9975546 -0.15737265
83396.18 15828.034 6.0105967 -0.16004934
83397.00 15827.726 6.0096131 -0.15678698
83397.81 15827.418 6.0224447 -0.15048613
83398.63 15827.110 6.0374905 -0.14176577
83399.44 15826.802 6.0497778 -0.13928577
83400.26 15826.493 6.057875 -0.13975358
83401.07 15826.185 6.0716657 -0.12940068
83401.89 15825.877 6.0814186 -0.12613818
83402.70 15825.569 6.0947546 -0.12528122
83403.52 15825.261 6.1041565 -0.12330767
83404.34 15824.953 6.1208666 -0.12201609
83405.15 15824.645 6.1335813 -0.12161549
83405.97 15824.337 6.1465685 -0.12489809
83406.78 15824.028 6.1595601 -0.11461224
83407.60 15823.720 6.1647211 -0.1231917
83408.42 15823.412 6.1795035 -0.12664218
83409.23 15823.104 6.1934402 -0.12475438
83410.05 15822.796 6.2019089 -0.12645788
83410.86 15822.488 6.2151335 -0.13888295
83411.68 15822.180 6.2307163 -0.13673574
83412.49 15821.872 6.2372637 -0.15051343
83413.31 15821.564 6.2528943 -0.15393209
83414.13 15821.255 6.2652839 -0.1708943
83414.94 15820.947 6.2795539 -0.18942549
83415.76 15820.639 6.2937675 -0.20863307
83416.58 15820.331 6.3050666 -0.22817815
83417.39 15820.023 6.3158436 -0.24953962
83418.21 15819.715 6.3286279 -0.26867457
83419.02 15819.407 6.3365742 -0.30156028
83419.84 15819.099 6.3413363 -0.33040453
83420.65 15818.790 6.347213 -0.3607305
83421.47 15818.482 6.3510533 -0.40566366
83422.29 15818.174 6.3531224 -0.45412574
83423.10 15817.866 6.3336611 -0.53016805
83423.92 15817.558 6.0689563 -0.69503477
83424.73 15817.250 5.8963528 -0.60593533
83425.55 15816.942 5.8895089 -0.59829603
83426.36 15816.633 5.8873411 -0.59651404
83427.18 15816.325 5.8780502 -0.58795666
83427.99 15816.017 5.876248 -0.57727937
83428.81 15815.709 5.8731598 -0.5799937
83429.62 15815.401 5.8675137 -0.57040216
83430.44 15815.093 5.8647802 -0.57292431
83431.26 15814.785 5.8674827 -0.56235609
83432.08 15814.477 5.8590185 -0.56031843
83432.89 15814.168 5.859521 -0.55848471
83433.71 15813.860 5.8564747 -0.5609524
83434.52 15813.552 5.8555156 -0.54668664
83435.33 15813.244 5.8592086 -0.55209398
83436.15 15812.936 5.8518431 -0.54574366
83436.97 15812.628 5.8448591 -0.54731771
83437.79 15812.320 5.8460951 -0.54637582
83438.61 15812.012 5.8437649 -0.53726154
83439.43 15811.703 5.8482337 -0.53847265
83440.24 15811.395 5.8486821 -0.53414368
83441.06 15811.087 5.8482938 -0.53286652
83441.88 15810.779 5.8450096 -0.52469085
83442.69 15810.471 5.8402325 -0.51992077
83443.51 15810.163 5.8424525 -0.52907512
83444.33 15809.855 5.8312903 -0.52215864
83445.14 15809.547 5.8382452 -0.52202773
83445.96 15809.238 5.8406604 -0.51880914
83446.78 15808.930 5.837122 -0.52192865
83447.60 15808.622 5.8351156 -0.52068242
83448.42 15808.314 5.8334958 -0.51774549
83449.23 15808.006 5.8372189 -0.51144667
83450.05 15807.698 5.8368896 -0.51563092
83450.86 15807.390 5.8344085 -0.51308598
83451.68 15807.082 5.8339065 -0.50821785
83452.50 15806.773 5.8361752 -0.51181098
83453.31 15806.465 5.8311944 -0.50801771
83454.13 15806.157 5.8322971 -0.50983169
83454.94 15805.849 5.8319752 -0.50461244
83455.76 15805.541 5.829369 -0.49919186
83456.58 15805.233 5.8326054 -0.50534987
83457.40 15804.925 5.8376827 -0.49685713
83458.22 15804.617 5.8290175 -0.50527086
83459.03 15804.308 5.8289243 -0.50202084
83459.85 15804.000 5.8292353 -0.49767903
83460.67 15803.692 5.8336441 -0.49402939
83461.49 15803.384 5.8292117 -0.49043791
83462.30 15803.076 5.8287146 -0.49171155
