# Sweep from 15836.168Hz to 15813.752Hz step -0.1867999999999938Hz delay 0.9s
# Excitation 0.002072Vpp attenuator 0 dB
# time(s), freq(Hz), absorption(nA), dispersion(nA)
11386.43 15836.168 2.3146974 -0.26991785
11387.35 15835.981 2.320194 -0.26880463
11388.27 15835.794 2.3179268 -0.26439605
11389.18 15835.608 2.3180683 -0.26280591
11390.10 15835.421 2.3218047 -0.26496289
11391.01 15835.234 2.3243251 -0.26393064
11391.93 15835.047 2.3204941 -0.25791425
11392.84 15834.860 2.3292255 -0.25747417
11393.76 15834.674 2.3208158 -0.25582887
11394.68 15834.487 2.3306143 -0.25354166
11395.60 15834.300 2.3285422 -0.25115901
11396.51 15834.113 2.3259392 -0.2490838
11397.43 15833.926 2.3298264 -0.24650279
11398.35 15833.740 2.3320979 -0.24707609
11399.26 15833.553 2.3293435 -0.24256099
11400.18 15833.366 2.3327893 -0.23954954
11401.09 15833.179 2.3387449 -0.23679279
11402.01 15832.992 2.3377502 -0.23671842
11402.92 15832.806 2.3370878 -0.23381318
11403.84 15832.619 2.3405514 -0.22775126
11404.75 15832.432 2.3473133 -0.230239
11405.67 15832.245 2.3463417 -0.22476863
11406.59 15832.058 2.346171 -0.2271895
11407.50 15831.872 2.3508032 -0.22583976
11408.42 15831.685 2.3524408 -0.21495536
11409.34 15831.498 2.3520545 -0.21085661
11410.25 15831.311 2.3610287 -0.21122796
11411.17 15831.124 2.3668458 -0.20368593
11412.08 15830.938 2.3702285 -0.20509364
11413.00 15830.751 2.364623 -0.20126197
11413.91 15830.564 2.3778482 -0.19894942
11414.83 15830.377 2.3797584 -0.18667461
11415.75 15830.190 2.3880993 -0.1789959
11416.66 15830.004 2.3976172 -0.18419472
11417.58 15829.817 2.4029659 -0.17646703
11418.49 15829.630 2.4047101 -0.17742185
11419.41 15829.443 2.4128938 -0.17607532
11420.33 15829.256 2.4134608 -0.16719676
11421.24 15829.070 2.4223243 -0.15937194
11422.16 15828.883 2.4334863 -0.16026237
11423.07 15828.696 2.4474189 -0.16019303
11423.99 15828.509 2.4574949 -0.1547434
11424.90 15828.322 2.4691292 -0.15026976
11425.81 15828.136 2.476246 -0.14082698
11426.73 15827.949 2.4886826 -0.14361369
11427.65 15827.762 2.4900016 -0.14238842
11428.56 15827.575 2.5010781 -0.14158081
11429.48 15827.388 2.5184727 -0.14462999
11430.39 15827.202 2.5266004 -0.13785021
11431.31 15827.015 2.5395766 -0.13854202
11432.22 15826.828 2.5553854 -0.14455293
11433.14 15826.641 2.5635725 -0.14027887
11434.06 15826.454 2.5715653 -0.13494166
11434.97 15826.268 2.5847633 -0.14469595
11435.88 15826.081 2.5976101 -0.1415105
11436.80 15825.894 2.6108673 -0.15536122
11437.72 15825.707 2.624751 -0.15342059
11438.64 15825.520 2.636732 -0.1595421
11439.55 15825.334 2.6514056 -0.17245432
11440.47 15825.147 2.6660525 -0.18539477
11441.38 15824.960 2.6653897 -0.19361755
11442.30 15824.773 2.6824546 -0.20027248
11443.21 15824.586 2.6917457 -0.21031684
11444.13 15824.400 2.7049919 -0.2246213
11445.04 15824.213 2.7123003 -0.2435421
11445.96 15824.026 2.7248682 -0.26463252
11446.87 15823.839 2.7302185 -0.29093002
11447.79 15823.652 2.7376548 -0.30268771
11448.70 15823.466 2.7356277 -0.34546801
11449.62 15823.279 2.7232402 -0.43262503
11450.54 15823.092 2.3759985 -0.48070513
11451.45 15822.905 2.369509 -0.4746843
11452.37 15822.718 2.3655639 -0.46809501
11453.28 15822.532 2.3515938 -0.46634179
11454.20 15822.345 2.3551554 -0.45916138
11455.11 15822.158 2.3536954 -0.46056945
11456.03 15821.971 2.3504247 -0.45482994
11456.94 15821.784 2.3418138 -0.45615602
11457.86 15821.598 2.3436673 -0.4444764
11458.77 15821.411 2.3352109 -0.44058706
11459.69 15821.224 2.3394914 -0.44167683
11460.61 15821.037 2.3329924 -0.44147282
11461.52 15820.850 2.3373993 -0.43596955
11462.44 15820.664 2.328821 -0.43595441
11463.35 15820.477 2.3316784 -0.434703
11464.26 15820.290 2.3330617 -0.43337474
11465.18 15820.103 2.3284015 -0.42245679
11466.09 15819.916 2.3237194 -0.42599467
11467.01 15819.730 2.3216589 -0.42154582
11467.93 15819.543 2.3221548 -0.41758614
11468.84 15819.356 2.3302778 -0.41948454
11469.76 15819.169 2.3240793 -0.42226006
11470.68 15818.982 2.32191 -0.41615161
11471.59 15818.796 2.3246153 -0.41778915
11472.51 15818.609 2.3194366 -0.41429539
11473.43 15818.422 2.3226794 -0.41101487
11474.35 15818.235 2.3191774 -0.41349432
11475.26 15818.048 2.3216287 -0.41119483
11476.18 15817.862 2.3204634 -0.40855906
11477.10 15817.675 2.3221428 -0.40540797
11478.01 15817.488 2.3201937 -0.40383421
11478.93 15817.301 2.3171533 -0.40104183
11479.84 15817.114 2.3210002 -0.40320435
11480.76 15816.928 2.3161758 -0.40309135
11481.67 15816.741 2.3180648 -0.40167356
11482.59 15816.554 2.3177154 -0.3992171
11483.50 15816.367 2.315091 -0.40739735
11484.42 15816.180 2.3141527 -0.39862496
11485.34 15815.994 2.3171601 -0.39951252
11486.25 15815.807 2.3085884 -0.40077521
11487.17 15815.620 2.3115724 -0.39338656
11488.08 15815.433 2.3174955 -0.39756725
11489.00 15815.246 2.3104596 -0.39124507
11489.92 15815.060 2.3100815 -0.39390389
11490.83 15814.873 2.310695 -0.39867106
11491.75 15814.686 2.3090377 -0.39043755
11492.66 15814.499 2.3107295 -0.385064
11493.58 15814.312 2.3093205 -0.3911089
11494.50 15814.126 2.316491 -0.38385699
11495.42 15813.939 2.3142072 -0.39410315
11496.33 15813.752 2.3108507 -0.38938558
