# Sweep from 15837.562Hz to 15809.815Hz step -0.2312249999999949Hz delay 0.9s
# Excitation 0.002413Vpp attenuator 0 dB
# time(s), freq(Hz), absorption(nA), dispersion(nA)
12051.98 15837.562 2.6943576 -0.27994835
12052.90 15837.331 2.6961088 -0.27027562
12053.81 15837.100 2.693889 -0.27492754
12054.73 15836.868 2.6986727 -0.26945455
12055.64 15836.637 2.6981193 -0.26851248
12056.56 15836.406 2.6987104 -0.2687122
12057.48 15836.175 2.7023095 -0.26545143
12058.40 15835.943 2.701207 -0.26168459
12059.31 15835.712 2.7045005 -0.25796663
12060.23 15835.481 2.7016356 -0.2605664
12061.14 15835.250 2.7027038 -0.25249187
12062.06 15835.019 2.7051494 -0.24956799
12062.98 15834.787 2.7046246 -0.25293542
12063.89 15834.556 2.707191 -0.24706142
12064.81 15834.325 2.710563 -0.24390772
12065.72 15834.094 2.7117119 -0.23783612
12066.64 15833.862 2.7125718 -0.24124157
12067.55 15833.631 2.7172641 -0.23211082
12068.47 15833.400 2.7160966 -0.22860374
12069.39 15833.169 2.7213553 -0.23139151
12070.30 15832.938 2.7141225 -0.22067353
12071.22 15832.706 2.7280405 -0.22000931
12072.13 15832.475 2.722549 -0.22479244
12073.04 15832.244 2.7269939 -0.21155014
12073.96 15832.013 2.7330861 -0.20951232
12074.88 15831.781 2.7330564 -0.20871362
12075.79 15831.550 2.7385836 -0.20223577
12076.71 15831.319 2.7447575 -0.19880663
12077.63 15831.088 2.751721 -0.19453665
12078.54 15830.856 2.7543228 -0.18783641
12079.46 15830.625 2.7649478 -0.18183037
12080.38 15830.394 2.7670492 -0.17869303
12081.29 15830.163 2.7706558 -0.17096919
12082.20 15829.932 2.7848009 -0.16217071
12083.12 15829.700 2.78262 -0.15950761
12084.04 15829.469 2.794822 -0.15368393
12084.96 15829.238 2.7990193 -0.15222187
12085.87 15829.007 2.8138934 -0.1461854
12086.79 15828.775 2.8264703 -0.13601509
12087.71 15828.544 2.8368972 -0.13408886
12088.62 15828.313 2.8440197 -0.12723194
12089.54 15828.082 2.8543604 -0.12415386
12090.45 15827.851 2.8662485 -0.1180962
12091.36 15827.619 2.8816664 -0.11610979
12092.28 15827.388 2.8954996 -0.11334945
12093.19 15827.157 2.8995246 -0.10636776
12094.11 15826.926 2.9174769 -0.10625665
12095.02 15826.694 2.9311857 -0.10238456
12095.95 15826.463 2.941392 -0.10370557
12096.86 15826.232 2.9582011 -0.10454895
12097.77 15826.001 2.9716475 -0.10323851
12098.69 15825.770 2.9807397 -0.10188629
12099.61 15825.538 2.9971839 -0.10288738
12100.52 15825.307 3.008829 -0.1087021
12101.44 15825.076 3.0186959 -0.11203223
12102.36 15824.845 3.0323399 -0.11701296
12103.27 15824.613 3.0530744 -0.12376964
12104.19 15824.382 3.0569997 -0.12995332
12105.10 15824.151 3.0637848 -0.12944959
12106.02 15823.920 3.0836122 -0.1474753
12106.94 15823.689 3.0970054 -0.14635515
12107.86 15823.457 3.1072034 -0.16048432
12108.77 15823.226 3.1225632 -0.17555156
12109.69 15822.995 3.1345589 -0.18577646
12110.60 15822.764 3.1447303 -0.19667765
12111.52 15822.532 3.1646907 -0.22909113
12112.44 15822.301 3.1642642 -0.25683579
12113.35 15822.070 3.1771131 -0.28112521
12114.27 15821.839 3.1865179 -0.36023937
12115.19 15821.607 3.1570803 -0.47063375
12116.10 15821.376 2.7283322 -0.47876239
12117.02 15821.145 2.7173301 -0.47190252
12117.93 15820.914 2.7192143 -0.46151726
12118.86 15820.683 2.7183032 -0.46380896
12119.77 15820.451 2.7161577 -0.45440009
12120.69 15820.220 2.7149877 -0.45264972
12121.61 15819.989 2.7106021 -0.45200102
12122.52 15819.758 2.706865 -0.44647729
12123.44 15819.526 2.7056262 -0.44765554
12124.35 15819.295 2.7058586 -0.4368415
12125.26 15819.064 2.7038059 -0.43925419
12126.18 15818.833 2.7059598 -0.43919869
12127.09 15818.602 2.7034462 -0.42867828
12128.01 15818.370 2.6968632 -0.43238299
12128.93 15818.139 2.6992263 -0.42923753
12129.84 15817.908 2.7022961 -0.42889323
12130.76 15817.677 2.695936 -0.42549789
12131.68 15817.445 2.6957537 -0.42847341
12132.60 15817.214 2.6959935 -0.42278123
12133.51 15816.983 2.6924599 -0.41566261
12134.42 15816.752 2.6946238 -0.42085853
12135.34 15816.521 2.695637 -0.4223634
12136.25 15816.289 2.6979824 -0.41771409
12137.17 15816.058 2.6913667 -0.41808289
12138.08 15815.827 2.6926264 -0.4152933
12139.00 15815.596 2.6895859 -0.41077391
12139.92 15815.364 2.6915759 -0.41596792
12140.84 15815.133 2.6903385 -0.41217845
12141.76 15814.902 2.6913792 -0.41043981
12142.68 15814.671 2.6914656 -0.40767793
12143.59 15814.440 2.6961186 -0.41584912
12144.51 15814.208 2.6837492 -0.40957707
12145.42 15813.977 2.6915513 -0.40671628
12146.34 15813.746 2.6850962 -0.40445195
12147.26 15813.515 2.6872517 -0.39985085
12148.17 15813.283 2.6878708 -0.40429811
12149.09 15813.052 2.6891662 -0.40159489
12150.00 15812.821 2.6924429 -0.39811766
12150.92 15812.590 2.6944172 -0.40458593
12151.83 15812.358 2.6904386 -0.40017673
12152.75 15812.127 2.6898215 -0.39819986
12153.66 15811.896 2.6910936 -0.4000606
12154.57 15811.665 2.6927432 -0.40571359
12155.49 15811.434 2.6927651 -0.39873271
12156.40 15811.202 2.6868174 -0.39499128
12157.32 15810.971 2.6865901 -0.39707467
12158.24 15810.740 2.6895846 -0.39924868
12159.15 15810.509 2.6873552 -0.40066567
12160.07 15810.277 2.6883463 -0.39155836
12160.99 15810.046 2.6822811 -0.39803822
12161.90 15809.815 2.6802231 -0.399356
