# Sweep from 15815.828Hz to 15836.184Hz step 0.1696333333333314Hz delay 0.9s
# Excitation 0.001691Vpp attenuator 0 dB
# time(s), freq(Hz), absorption(nA), dispersion(nA)
10387.93 15815.828 1.8847875 -0.37919946
10388.84 15815.998 1.8865521 -0.37606682
10389.75 15816.167 1.8841289 -0.37849446
10390.67 15816.337 1.887804 -0.38231471
10391.59 15816.507 1.8861646 -0.38128442
10392.51 15816.676 1.8910756 -0.38466578
10393.43 15816.846 1.8847104 -0.38417443
10394.34 15817.015 1.8911792 -0.37926452
10395.25 15817.185 1.8915226 -0.38658672
10396.17 15817.355 1.8895698 -0.37949891
10397.09 15817.524 1.8927055 -0.38235856
10398.01 15817.694 1.8902024 -0.38620388
10398.92 15817.864 1.8910841 -0.38712173
10399.84 15818.033 1.8996708 -0.38838158
10400.75 15818.203 1.8937631 -0.391669
10401.67 15818.372 1.8936 -0.38971217
10402.59 15818.542 1.8899669 -0.39025153
10403.51 15818.712 1.8915159 -0.392667
10404.42 15818.881 1.8980629 -0.39284262
10405.34 15819.051 1.8877347 -0.39475393
10406.26 15819.221 1.8943892 -0.40187149
10407.17 15819.390 1.8978325 -0.39291589
10408.09 15819.560 1.8979282 -0.39687501
10409.00 15819.730 1.8984165 -0.39359219
10409.92 15819.899 1.905246 -0.39707766
10410.83 15820.069 1.9040982 -0.40491804
10411.75 15820.238 1.9037302 -0.40124795
10412.67 15820.408 1.909053 -0.4080315
10413.59 15820.578 1.8977269 -0.40586329
10414.50 15820.747 1.9032328 -0.40436694
10415.42 15820.917 1.904208 -0.40779568
10416.33 15821.087 1.9077722 -0.4135764
10417.25 15821.256 1.9066186 -0.41400835
10418.17 15821.426 1.9093288 -0.41799603
10419.08 15821.596 1.9106167 -0.42207645
10420.00 15821.765 1.9148706 -0.41737337
10420.91 15821.935 1.9163047 -0.42367046
10421.83 15822.104 1.9232853 -0.42787306
10422.75 15822.274 1.9192523 -0.42783216
10423.66 15822.444 1.9233826 -0.43194629
10424.58 15822.613 1.9285992 -0.43536195
10425.50 15822.783 1.9264653 -0.43563747
10426.41 15822.953 1.9338472 -0.44016656
10427.33 15823.122 1.937233 -0.44106983
10428.25 15823.292 1.9395598 -0.44592102
10429.17 15823.461 1.9426077 -0.44762515
10430.08 15823.631 1.9485867 -0.4531274
10431.00 15823.801 1.955802 -0.45489244
10431.92 15823.970 1.9653735 -0.46630555
10432.83 15824.140 1.9679226 -0.45681753
10433.74 15824.310 1.9858612 -0.46957916
10434.66 15824.479 2.0038458 -0.47701161
10435.57 15824.649 2.0197658 -0.47698421
10436.49 15824.819 2.0514133 -0.47941177
10437.40 15824.988 2.1055569 -0.46169544
10438.32 15825.158 2.1905203 -0.3832395
10439.24 15825.327 2.2128959 -0.31421999
10440.16 15825.497 2.2124545 -0.28687842
10441.07 15825.667 2.2012428 -0.26219749
10441.99 15825.836 2.197532 -0.25324985
10442.91 15826.006 2.1821047 -0.23357481
10443.82 15826.176 2.1693781 -0.21952776
10444.74 15826.345 2.166649 -0.21723243
10445.66 15826.515 2.1491012 -0.21090851
10446.57 15826.685 2.1357366 -0.19981211
10447.49 15826.854 2.1202363 -0.1962953
10448.41 15827.024 2.1185699 -0.18855073
10449.33 15827.193 2.0970829 -0.18887778
10450.24 15827.363 2.0899736 -0.17879479
10451.15 15827.533 2.0781454 -0.18241698
10452.07 15827.702 2.0662042 -0.17968094
10452.99 15827.872 2.0602017 -0.18036785
10453.91 15828.042 2.0476502 -0.18343489
10454.83 15828.211 2.0361888 -0.1741044
10455.74 15828.381 2.022713 -0.18091444
10456.66 15828.550 2.0122175 -0.1834471
10457.57 15828.720 2.0112875 -0.18309763
10458.49 15828.890 1.9960892 -0.18812993
10459.40 15829.059 1.9917263 -0.18814015
10460.31 15829.229 1.9818292 -0.186515
10461.23 15829.399 1.9806084 -0.18818457
10462.14 15829.568 1.9666156 -0.19437776
10463.06 15829.738 1.9672727 -0.19578509
10463.98 15829.908 1.962263 -0.20155173
10464.89 15830.077 1.9606227 -0.20339435
10465.81 15830.247 1.9558172 -0.21252788
10466.73 15830.416 1.9508877 -0.21103568
10467.65 15830.586 1.9475287 -0.21012528
10468.57 15830.756 1.9433817 -0.21461643
10469.48 15830.925 1.9362876 -0.21565668
10470.40 15831.095 1.9297684 -0.21903926
10471.31 15831.265 1.9305583 -0.21935033
10472.23 15831.434 1.9256968 -0.22473388
10473.14 15831.604 1.9209847 -0.22580598
10474.05 15831.774 1.922805 -0.23356722
10474.97 15831.943 1.9191411 -0.22933683
10475.89 15832.113 1.9210133 -0.23370208
10476.81 15832.282 1.9117324 -0.23402399
10477.72 15832.452 1.9188822 -0.23667549
10478.64 15832.622 1.9091515 -0.23440182
10479.55 15832.791 1.9081765 -0.24691408
10480.47 15832.961 1.9082079 -0.24553282
10481.38 15833.131 1.9086372 -0.2536211
10482.30 15833.300 1.907694 -0.25217003
10483.21 15833.470 1.9006955 -0.25280835
10484.13 15833.639 1.9025016 -0.25784672
10485.05 15833.809 1.9024421 -0.25735832
10485.96 15833.979 1.8982435 -0.26358339
10486.88 15834.148 1.8973874 -0.26250558
10487.79 15834.318 1.8994978 -0.25580258
10488.71 15834.488 1.8984202 -0.26005421
10489.63 15834.657 1.8917044 -0.25828976
10490.54 15834.827 1.893364 -0.26285784
10491.46 15834.997 1.8918244 -0.26744451
10492.38 15835.166 1.8928108 -0.26709941
10493.29 15835.336 1.8929541 -0.26702764
10494.21 15835.505 1.8915568 -0.26973305
10495.12 15835.675 1.8927363 -0.27106202
10496.04 15835.845 1.894911 -0.27382683
10496.96 15836.014 1.8878712 -0.27239787
10497.87 15836.184 1.8898805 -0.27074546
